#Acq. time (s)=	1
#Accumulations=	2
#Range=	Off
#Autofocus=	Off
#AutoExposure=	Off
#Spike filter=	Multiple accum.
#Delay time (s)=	0
#Binning=	1
#Readout mode=	Signal
#DeNoise=	Off
#ICS correction=	Off
#Dark correction=	Off
#Inst. Process=	Off
#Detector Gain=	Best Dynamic Range
#Detector ADC=	45 kHz       
#Detector temperature (°C)=	-60.1
#Instrument=	LabRAM HR Evol
#Detector=	Syncerity
#Objective=	x50Lwd
#Grating=	1800 gr/mm
#Laser (nm)=	532 
#Spectro (cm-¹)=	4400
#ND Filter=	0.01%
#Hole=	100.021
#StageXY=	Marzhauser
#StageZ=	Marzhauser
#X (µm)=	0
#Y (µm)=	0
#Z (µm)=	88.7
#Full time(s)=	7
#Project=	A
#Sample=	B
#Site=	C
#Title=	G_P00_54
#Remark=	
#Date=	10.12.2021 11:55
#Acquired=	10.12.2021 11:55:34
#AxisType[0]=Intens
#AxisUnit[0]=Cnt
#AxisType[1]=Spectr
#AxisUnit[1]=1/cm
4261.72	379
4262	379
4262.27	391
4262.55	393
4262.82	375
4263.1	393
4263.37	397
4263.65	391
4263.93	407
4264.2	361
4264.48	387
4264.75	379
4265.03	381
4265.3	371
4265.58	397
4265.86	391
4266.13	369
4266.41	373
4266.68	395
4266.96	377
4267.23	385
4267.51	401
4267.78	381
4268.06	393
4268.34	391
4268.61	361
4268.89	387
4269.16	385
4269.44	385
4269.71	369
4269.99	371
4270.26	369
4270.54	391
4270.81	395
4271.09	381
4271.36	373
4271.64	367
4271.91	385
4272.19	377
4272.47	377
4272.74	375
4273.02	389
4273.29	347
4273.57	375
4273.84	367
4274.12	393
4274.39	375
4274.67	381
4274.94	401
4275.22	371
4275.49	337
4275.77	369
4276.04	367
4276.32	383
4276.59	375
4276.86	389
4277.14	369
4277.42	363
4277.69	387
4277.96	349
4278.24	359
4278.51	369
4278.79	373
4279.06	371
4279.34	375
4279.61	381
4279.89	363
4280.16	369
4280.44	371
4280.71	373
4280.99	349
4281.26	377
4281.54	363
4281.81	377
4282.08	385
4282.36	367
4282.63	373
4282.91	363
4283.18	379
4283.46	367
4283.73	391
4284.01	371
4284.28	377
4284.55	367
4284.83	369
4285.1	367
4285.38	357
4285.65	367
4285.93	375
4286.2	373
4286.47	365
4286.75	375
4287.02	363
4287.3	367
4287.57	355
4287.85	361
4288.12	393
4288.39	367
4288.67	379
4288.94	385
4289.22	377
4289.49	361
4289.76	367
4290.04	375
4290.31	357
4290.59	387
4290.86	351
4291.13	371
4291.41	373
4291.68	381
4291.95	371
4292.23	373
4292.5	373
4292.78	391
4293.05	385
4293.32	351
4293.6	373
4293.87	373
4294.15	395
4294.42	381
4294.69	367
4294.97	383
4295.24	365
4295.51	353
4295.79	369
4296.06	383
4296.33	381
4296.61	357
4296.88	385
4297.15	383
4297.43	377
4297.7	367
4297.98	375
4298.25	365
4298.52	361
4298.8	359
4299.07	377
4299.34	363
4299.62	371
4299.89	387
4300.16	399
4300.43	369
4300.71	373
4300.98	367
4301.25	373
4301.53	375
4301.8	351
4302.07	385
4302.35	359
4302.62	375
4302.89	405
4303.17	373
4303.44	371
4303.71	375
4303.99	393
4304.26	357
4304.53	365
4304.81	379
4305.08	367
4305.35	389
4305.62	379
4305.9	383
4306.17	387
4306.44	381
4306.72	383
4306.99	381
4307.26	377
4307.53	359
4307.81	369
4308.08	377
4308.35	379
4308.62	375
4308.9	361
4309.17	363
4309.44	387
4309.72	403
4309.99	361
4310.26	373
4310.53	363
4310.81	365
4311.08	381
4311.35	379
4311.62	375
4311.9	397
4312.17	375
4312.44	403
4312.71	383
4312.98	393
4313.26	381
4313.53	377
4313.8	389
4314.08	391
4314.35	389
4314.62	391
4314.89	385
4315.16	401
4315.44	375
4315.71	391
4315.98	371
4316.25	409
4316.53	381
4316.8	369
4317.07	389
4317.34	393
4317.61	371
4317.89	407
4318.16	391
4318.43	403
4318.7	387
4318.97	391
4319.25	365
4319.52	405
4319.79	395
4320.06	387
4320.33	415
4320.61	395
4320.88	413
4321.15	371
4321.42	382
4321.69	393
4321.96	399
4322.24	393
4322.51	389
4322.78	403
4323.05	405
4323.32	383
4323.6	401
4323.87	387
4324.14	397
4324.41	407
4324.68	411
4324.95	391
4325.22	383
4325.5	421
4325.77	401
4326.04	407
4326.31	423
4326.58	415
4326.85	405
4327.13	403
4327.4	397
4327.67	417
4327.94	415
4328.21	417
4328.48	415
4328.75	421
4329.02	397
4329.3	409
4329.57	405
4329.84	419
4330.11	429
4330.38	427
4330.65	431
4330.92	431
4331.19	399
4331.47	417
4331.74	405
4332.01	435
4332.28	427
4332.55	429
4332.82	417
4333.09	407
4333.36	429
4333.63	417
4333.91	407
4334.18	409
4334.45	417
4334.72	431
4334.99	429
4335.26	417
4335.53	445
4335.8	419
4336.07	443
4336.34	433
4336.61	409
4336.89	423
4337.16	423
4337.43	413
4337.7	441
4337.97	425
4338.24	455
4338.51	433
4338.78	435
4339.05	435
4339.32	463
4339.59	433
4339.86	437
4340.13	437
4340.4	457
4340.67	437
4340.94	453
4341.21	457
4341.49	459
4341.76	449
4342.03	461
4342.3	463
4342.57	455
4342.84	459
4343.11	467
4343.38	449
4343.65	453
4343.92	443
4344.19	455
4344.46	459
4344.73	465
4345	449
4345.27	471
4345.54	433
4345.81	469
4346.08	465
4346.35	467
4346.62	485
4346.89	491
4347.16	489
4347.43	481
4347.7	481
4347.97	463
4348.24	493
4348.51	485
4348.78	503
4349.05	467
4349.32	509
4349.59	503
4349.86	481
4350.13	489
4350.4	491
4350.67	507
4350.94	511
4351.21	503
4351.48	525
4351.75	515
4352.02	491
4352.29	513
4352.56	511
4352.83	541
4353.1	513
4353.37	511
4353.64	543
4353.91	523
4354.18	557
4354.45	505
4354.72	531
4354.99	527
4355.25	545
4355.52	553
4355.79	555
4356.06	563
4356.33	565
4356.6	559
4356.87	537
4357.14	557
4357.41	561
4357.68	575
4357.95	565
4358.22	579
4358.49	575
4358.76	561
4359.03	575
4359.3	569
4359.56	603
4359.83	613
4360.1	595
4360.37	567
4360.64	581
4360.91	625
4361.18	601
4361.45	627
4361.72	617
4361.99	637
4362.26	631
4362.52	635
4362.79	635
4363.06	639
4363.33	635
4363.6	645
4363.87	643
4364.14	645
4364.41	629
4364.68	635
4364.94	643
4365.21	635
4365.48	639
4365.75	667
4366.02	663
4366.29	661
4366.56	713
4366.83	697
4367.09	679
4367.36	709
4367.63	671
4367.9	727
4368.17	701
4368.44	717
4368.71	707
4368.98	743
4369.24	723
4369.51	743
4369.78	755
4370.05	783
4370.32	747
4370.59	763
4370.86	771
4371.12	793
4371.39	779
4371.66	775
4371.93	767
4372.2	811
4372.47	781
4372.73	807
4373	821
4373.27	801
4373.54	837
4373.81	835
4374.07	837
4374.34	827
4374.61	855
4374.88	881
4375.15	879
4375.42	887
4375.68	897
4375.95	901
4376.22	873
4376.49	921
4376.76	921
4377.02	965
4377.29	899
4377.56	945
4377.83	977
4378.1	989
4378.36	989
4378.63	963
4378.9	977
4379.17	1017
4379.44	1025
4379.7	1031
4379.97	1029
4380.24	1057
4380.51	1067
4380.77	1033
4381.04	1047
4381.31	1159
4381.58	1101
4381.85	1127
4382.11	1111
4382.38	1165
4382.65	1175
4382.92	1159
4383.18	1143
4383.45	1217
4383.72	1247
4383.99	1197
4384.25	1189
4384.52	1205
4384.79	1281
4385.06	1301
4385.32	1243
4385.59	1289
4385.86	1327
4386.13	1399
4386.39	1415
4386.66	1373
4386.93	1375
4387.19	1417
4387.46	1391
4387.73	1431
4388	1519
4388.26	1549
4388.53	1473
4388.8	1527
4389.07	1567
4389.33	1585
4389.6	1607
4389.87	1553
4390.13	1605
4390.4	1707
4390.67	1701
4390.94	1697
4391.2	1659
4391.47	1741
4391.74	1773
4392	1765
4392.27	1767
4392.54	1849
4392.8	1885
4393.07	1915
4393.34	1929
4393.6	1943
4393.87	2021
4394.14	2051
4394.41	2093
4394.67	2151
4394.94	2123
4395.21	2275
4395.47	2187
4395.74	2259
4396.01	2371
4396.27	2421
4396.54	2381
4396.81	2411
4397.07	2459
4397.34	2521
4397.61	2641
4397.87	2583
4398.14	2645
4398.41	2755
4398.67	2893
4398.94	2871
4399.2	2977
4399.47	3013
4399.74	3089
4400	3115
4400.27	3203
4400.54	3305
4400.8	3313
4401.07	3383
4401.34	3457
4401.6	3655
4401.87	3787
4402.14	3729
4402.4	3855
4402.67	3963
4402.93	4199
4403.2	4355
4403.47	4325
4403.73	4351
4404	4517
4404.26	4859
4404.53	4913
4404.8	4979
4405.06	5035
4405.33	5301
4405.59	5565
4405.86	5701
4406.13	5843
4406.39	6127
4406.66	6289
4406.93	6569
4407.19	6675
4407.46	7033
4407.72	7337
4407.99	7435
4408.25	7617
4408.52	8133
4408.79	8659
4409.05	8769
4409.32	9007
4409.58	9369
4409.85	10203
4410.11	10561
4410.38	10735
4410.65	10933
4410.91	11757
4411.18	12685
4411.44	13151
4411.71	13247
4411.97	13865
4412.24	14551
4412.51	15383
4412.77	15813
4413.04	16639
4413.3	17475
4413.57	18105
4413.83	18575
4414.1	19701
4414.36	20887
4414.63	21333
4414.9	21537
4415.16	22337
4415.43	23823
4415.69	25117
4415.96	25183
4416.22	25449
4416.49	26607
4416.75	28565
4417.02	29225
4417.28	29225
4417.55	29589
4417.81	30407
4418.08	31621
4418.34	32209
4418.61	32069
4418.87	32513
4419.14	32653
4419.4	32793
4419.67	33155
4419.93	33487
4420.2	33029
4420.46	32655
4420.73	32173
4420.99	32025
4421.26	32267
4421.52	31603
4421.79	30389
4422.05	29507
4422.32	29905
4422.58	29751
4422.85	28373
4423.11	27131
4423.38	26383
4423.64	26535
4423.91	26029
4424.17	24707
4424.44	23731
4424.7	23009
4424.97	22691
4425.23	21907
4425.5	21121
4425.76	20581
4426.02	20085
4426.29	19437
4426.55	18721
4426.82	18255
4427.08	17951
4427.35	17301
4427.61	16367
4427.88	16105
4428.14	16271
4428.41	15935
4428.67	15295
4428.94	14383
4429.2	14667
4429.46	14785
4429.73	14253
4429.99	13461
4430.26	13557
4430.52	13593
4430.79	13617
4431.05	13227
4431.31	12977
4431.58	12849
4431.84	12807
4432.11	12677
4432.37	12835
4432.63	12719
4432.9	12725
4433.16	12547
4433.43	12597
4433.69	12895
4433.96	13269
4434.22	12815
4434.48	12637
4434.75	13169
4435.01	13653
4435.28	13731
4435.54	13483
4435.8	13499
4436.07	14203
4436.33	14631
4436.6	14635
4436.86	14793
4437.12	14955
4437.39	15527
4437.65	15939
4437.92	16289
4438.18	16605
4438.44	17063
4438.71	17675
4438.97	17937
4439.23	18749
4439.5	19635
4439.76	20229
4440.02	20427
4440.29	20785
4440.55	22211
4440.82	23303
4441.08	23747
4441.34	23691
4441.61	24951
4441.87	26719
4442.13	27893
4442.4	27923
4442.66	28353
4442.92	29793
4443.19	31859
4443.45	32657
4443.71	33071
4443.98	34091
4444.24	35749
4444.5	37385
4444.77	37949
4445.03	39385
4445.29	40861
4445.56	41687
4445.82	42193
4446.08	43705
4446.35	45937
4446.61	47089
4446.87	46541
4447.14	46767
4447.4	48879
4447.66	50761
4447.93	50553
4448.19	49553
4448.45	50015
4448.72	51893
4448.98	52911
4449.24	52115
4449.5	50911
4449.77	51687
4450.03	52677
4450.29	51665
4450.56	51037
4450.82	50797
4451.08	50241
4451.34	49269
4451.61	48753
4451.87	48241
4452.13	47775
4452.4	45969
4452.66	44605
4452.92	43751
4453.18	43661
4453.45	42643
4453.71	40995
4453.97	38989
4454.23	38213
4454.5	38161
4454.76	36965
4455.02	34873
4455.29	33477
4455.55	32933
4455.81	32491
4456.07	31359
4456.34	29585
4456.6	28755
4456.86	28001
4457.12	27197
4457.39	26325
4457.65	24989
4457.91	24375
4458.17	23541
4458.44	22469
4458.7	21977
4458.96	21365
4459.22	20805
4459.48	19539
4459.75	18791
4460.01	18731
4460.27	18481
4460.53	17421
4460.8	16415
4461.06	15815
4461.32	16073
4461.58	15779
4461.84	14735
4462.11	14121
4462.37	13773
4462.63	13589
4462.89	13137
4463.16	12551
4463.42	12181
4463.68	11827
4463.94	11545
4464.2	11211
4464.47	11025
4464.73	10729
4464.99	10319
4465.25	9953
4465.51	9651
4465.77	9691
4466.04	9461
4466.3	9055
4466.56	8551
4466.82	8563
4467.08	8675
4467.34	8299
4467.61	7893
4467.87	7635
4468.13	7665
4468.39	7625
4468.65	7269
4468.92	7077
4469.18	6867
4469.44	6795
4469.7	6635
4469.96	6523
4470.22	6377
4470.48	6187
4470.75	6177
4471.01	5967
4471.27	5809
4471.53	5921
4471.79	5735
4472.05	5501
4472.32	5223
4472.58	5297
4472.84	5353
4473.1	5075
4473.36	5011
4473.62	4881
4473.88	4969
4474.14	4811
4474.41	4661
4474.67	4505
4474.93	4509
4475.19	4557
4475.45	4465
4475.71	4313
4475.97	4185
4476.23	4251
4476.5	4255
4476.76	4071
4477.02	3999
4477.28	4007
4477.54	3953
4477.8	3837
4478.06	3733
4478.32	3775
4478.58	3777
4478.84	3551
4479.1	3445
4479.37	3493
4479.63	3513
4479.89	3493
4480.15	3333
4480.41	3223
4480.67	3317
4480.93	3279
4481.19	3289
4481.45	3165
4481.71	3073
4481.97	3015
4482.23	3019
4482.5	2999
4482.76	2941
4483.02	2957
4483.28	2871
4483.54	2843
4483.8	2817
4484.06	2811
4484.32	2789
4484.58	2615
4484.84	2601
4485.1	2671
4485.36	2693
4485.62	2641
4485.88	2497
4486.14	2493
4486.4	2463
4486.66	2473
4486.93	2441
4487.19	2359
4487.44	2353
4487.71	2387
4487.97	2357
4488.23	2343
4488.49	2253
4488.75	2243
4489.01	2289
4489.27	2205
4489.53	2223
4489.79	2225
4490.05	2145
4490.31	2127
4490.57	2123
4490.83	2107
4491.09	2159
4491.35	2133
4491.61	2023
4491.87	1989
4492.13	2013
4492.39	1973
4492.65	1999
4492.91	1889
4493.17	1923
4493.43	1947
4493.69	1965
4493.95	1899
4494.21	1883
4494.47	1887
4494.73	1855
4494.99	1873
4495.25	1723
4495.51	1821
4495.77	1819
4496.03	1799
4496.29	1733
4496.55	1719
4496.81	1797
4497.07	1711
4497.33	1679
4497.58	1715
4497.85	1673
4498.1	1729
4498.36	1663
4498.62	1663
4498.88	1651
4499.14	1653
4499.4	1607
4499.66	1591
4499.92	1559
4500.18	1573
4500.44	1613
4500.7	1535
4500.96	1527
4501.22	1513
4501.48	1563
4501.74	1515
4502	1557
4502.25	1477
4502.51	1499
4502.77	1459
4503.03	1477
4503.29	1479
4503.55	1477
4503.81	1459
4504.07	1415
4504.33	1435
4504.59	1447
4504.85	1431
4505.11	1441
4505.37	1395
4505.63	1383
4505.88	1399
4506.14	1397
4506.4	1341
4506.66	1333
4506.92	1357
4507.18	1383
4507.44	1413
4507.7	1331
4507.96	1329
4508.22	1313
4508.47	1319
4508.73	1341
4508.99	1311
4509.25	1299
4509.51	1287
4509.77	1277
4510.03	1277
4510.29	1275
4510.54	1311
4510.8	1319
4511.06	1263
4511.32	1259
4511.58	1283
4511.84	1277
4512.1	1283
4512.35	1223
4512.61	1273
4512.87	1323
4513.13	1305
4513.39	1227
4513.65	1277
4513.91	1239
4514.16	1247
4514.42	1243
4514.68	1229
4514.94	1243
4515.2	1237
4515.46	1225
4515.72	1223
4515.97	1217
4516.23	1249
4516.49	1251
4516.75	1203
4517.01	1189
4517.26	1211
4517.52	1231
4517.78	1183
4518.04	1173
4518.3	1215
4518.56	1233
4518.81	1223
4519.07	1235
4519.33	1223
4519.59	1249
4519.85	1233
4520.1	1221
4520.36	1265
4520.62	1227
4520.88	1263
4521.14	1209
4521.39	1249
4521.65	1213
4521.91	1243
4522.17	1247
4522.43	1235
4522.68	1199
4522.94	1239
4523.2	1237
4523.46	1199
4523.72	1185
4523.97	1201
4524.23	1217
4524.49	1225
4524.75	1201
4525	1145
4525.26	1191
4525.52	1211
4525.78	1193
4526.03	1155
4526.29	1193
4526.55	1153
4526.81	1245
4527.07	1147
4527.32	1163
4527.58	1155
4527.84	1155
4528.1	1141
4528.35	1123
4528.61	1137
4528.87	1163
4529.13	1089
4529.38	1079
4529.64	1127
4529.9	1117
4530.15	1127
4530.41	1075
4530.67	1081
4530.93	1109
4531.18	1107
4531.44	1143
4531.7	1077
4531.96	1049
4532.21	1087
4532.47	1109
4532.73	1113
4532.98	1095
4533.24	1039
4533.5	1091
4533.76	1085
4534.01	1059
4534.27	1035
