#Acq. time (s)=	0.5
#Accumulations=	2
#Range=	Off
#Autofocus=	Off
#AutoExposure=	Off
#Spike filter=	Multiple accum.
#Delay time (s)=	0
#Binning=	1
#Readout mode=	Signal
#DeNoise=	Off
#ICS correction=	Off
#Dark correction=	Off
#Inst. Process=	Off
#Detector Gain=	Best Dynamic Range
#Detector ADC=	45 kHz       
#Detector temperature (°C)=	-60.1
#Instrument=	LabRAM HR Evol
#Detector=	Syncerity
#Objective=	x50Lwd
#Grating=	1800 gr/mm
#Laser (nm)=	532 
#Spectro (cm-¹)=	4400
#ND Filter=	0.01%
#Hole=	100.021
#StageXY=	Marzhauser
#StageZ=	Marzhauser
#X (µm)=	0
#Y (µm)=	0
#Z (µm)=	77.5
#Full time(s)=	5
#Project=	A
#Sample=	B
#Site=	C
#Title=	G_P00_67
#Remark=	
#Date=	16.12.2021 16:05
#Acquired=	16.12.2021 16:05:01
#AxisType[0]=Intens
#AxisUnit[0]=Cnt
#AxisType[1]=Spectr
#AxisUnit[1]=1/cm
4261.72	221
4262	221
4262.27	227
4262.55	237
4262.82	203
4263.1	199
4263.37	199
4263.65	229
4263.93	225
4264.2	211
4264.48	225
4264.75	215
4265.03	225
4265.3	227
4265.58	233
4265.86	227
4266.13	231
4266.41	239
4266.68	207
4266.96	227
4267.23	229
4267.51	225
4267.78	217
4268.06	237
4268.34	231
4268.61	219
4268.89	221
4269.16	239
4269.44	221
4269.71	225
4269.99	205
4270.26	229
4270.54	239
4270.81	225
4271.09	221
4271.36	221
4271.64	233
4271.91	221
4272.19	205
4272.47	235
4272.74	233
4273.02	231
4273.29	221
4273.57	227
4273.84	233
4274.12	217
4274.39	233
4274.67	229
4274.94	229
4275.22	219
4275.49	209
4275.77	239
4276.04	241
4276.32	235
4276.59	229
4276.86	239
4277.14	237
4277.42	231
4277.69	219
4277.96	231
4278.24	227
4278.51	233
4278.79	231
4279.06	239
4279.34	223
4279.61	237
4279.89	211
4280.16	237
4280.44	249
4280.71	201
4280.99	237
4281.26	237
4281.54	229
4281.81	241
4282.08	237
4282.36	229
4282.63	243
4282.91	243
4283.18	229
4283.46	225
4283.73	213
4284.01	235
4284.28	239
4284.55	239
4284.83	231
4285.1	221
4285.38	233
4285.65	237
4285.93	211
4286.2	211
4286.47	229
4286.75	245
4287.02	241
4287.3	231
4287.57	227
4287.85	237
4288.12	227
4288.39	229
4288.67	253
4288.94	229
4289.22	217
4289.49	225
4289.76	241
4290.04	239
4290.31	229
4290.59	239
4290.86	237
4291.13	255
4291.41	221
4291.68	231
4291.95	223
4292.23	239
4292.5	247
4292.78	237
4293.05	245
4293.32	221
4293.6	233
4293.87	245
4294.15	249
4294.42	223
4294.69	251
4294.97	249
4295.24	251
4295.51	243
4295.79	259
4296.06	233
4296.33	231
4296.61	241
4296.88	243
4297.15	241
4297.43	235
4297.7	241
4297.98	237
4298.25	251
4298.52	243
4298.8	255
4299.07	225
4299.34	243
4299.62	223
4299.89	249
4300.16	249
4300.43	249
4300.71	235
4300.98	255
4301.25	253
4301.53	247
4301.8	245
4302.07	245
4302.35	251
4302.62	253
4302.89	241
4303.17	247
4303.44	255
4303.71	257
4303.99	249
4304.26	249
4304.53	255
4304.81	253
4305.08	251
4305.35	245
4305.62	253
4305.9	249
4306.17	277
4306.44	255
4306.72	251
4306.99	257
4307.26	243
4307.53	263
4307.81	265
4308.08	271
4308.35	267
4308.62	237
4308.9	253
4309.17	275
4309.44	275
4309.72	269
4309.99	261
4310.26	239
4310.53	271
4310.81	275
4311.08	257
4311.35	273
4311.62	253
4311.9	271
4312.17	285
4312.44	275
4312.71	267
4312.98	281
4313.26	273
4313.53	267
4313.8	289
4314.08	265
4314.35	257
4314.62	287
4314.89	281
4315.16	283
4315.44	285
4315.71	285
4315.98	299
4316.25	279
4316.53	251
4316.8	263
4317.07	279
4317.34	285
4317.61	275
4317.89	307
4318.16	281
4318.43	283
4318.7	305
4318.97	295
4319.25	295
4319.52	277
4319.79	295
4320.06	285
4320.33	285
4320.61	285
4320.88	303
4321.15	279
4321.42	285
4321.69	291
4321.96	331
4322.24	299
4322.51	287
4322.78	297
4323.05	307
4323.32	325
4323.6	301
4323.87	297
4324.14	309
4324.41	313
4324.68	307
4324.95	331
4325.22	297
4325.5	307
4325.77	317
4326.04	325
4326.31	309
4326.58	331
4326.85	289
4327.13	319
4327.4	311
4327.67	337
4327.94	333
4328.21	319
4328.48	331
4328.75	359
4329.02	323
4329.3	333
4329.57	321
4329.84	333
4330.11	329
4330.38	345
4330.65	321
4330.92	329
4331.19	341
4331.47	331
4331.74	331
4332.01	355
4332.28	343
4332.55	349
4332.82	347
4333.09	361
4333.36	351
4333.63	379
4333.91	355
4334.18	361
4334.45	365
4334.72	389
4334.99	373
4335.26	369
4335.53	359
4335.8	389
4336.07	371
4336.34	383
4336.61	385
4336.89	387
4337.16	405
4337.43	397
4337.7	395
4337.97	399
4338.24	403
4338.51	393
4338.78	387
4339.05	419
4339.32	383
4339.59	409
4339.86	407
4340.13	427
4340.4	433
4340.67	387
4340.94	411
4341.21	421
4341.49	439
4341.76	417
4342.03	421
4342.3	425
4342.57	445
4342.84	467
4343.11	447
4343.38	467
4343.65	451
4343.92	459
4344.19	439
4344.46	475
4344.73	465
4345	479
4345.27	465
4345.54	465
4345.81	487
4346.08	473
4346.35	485
4346.62	483
4346.89	509
4347.16	513
4347.43	499
4347.7	483
4347.97	497
4348.24	525
4348.51	525
4348.78	519
4349.05	539
4349.32	531
4349.59	567
4349.86	557
4350.13	549
4350.4	565
4350.67	547
4350.94	555
4351.21	565
4351.48	599
4351.75	573
4352.02	565
4352.29	583
4352.56	597
4352.83	605
4353.1	607
4353.37	603
4353.64	621
4353.91	631
4354.18	651
4354.45	635
4354.72	635
4354.99	673
4355.25	727
4355.52	659
4355.79	665
4356.06	673
4356.33	697
4356.6	711
4356.87	735
4357.14	735
4357.41	741
4357.68	749
4357.95	775
4358.22	779
4358.49	777
4358.76	789
4359.03	791
4359.3	801
4359.56	843
4359.83	843
4360.1	839
4360.37	795
4360.64	873
4360.91	885
4361.18	871
4361.45	881
4361.72	931
4361.99	901
4362.26	955
4362.52	945
4362.79	963
4363.06	985
4363.33	1029
4363.6	975
4363.87	1059
4364.14	1099
4364.41	1011
4364.68	1053
4364.94	1121
4365.21	1165
4365.48	1173
4365.75	1123
4366.02	1175
4366.29	1249
4366.56	1295
4366.83	1293
4367.09	1313
4367.36	1315
4367.63	1349
4367.9	1389
4368.17	1405
4368.44	1429
4368.71	1521
4368.98	1501
4369.24	1535
4369.51	1625
4369.78	1649
4370.05	1687
4370.32	1707
4370.59	1747
4370.86	1907
4371.12	1933
4371.39	1887
4371.66	1943
4371.93	2067
4372.2	2153
4372.47	2211
4372.73	2185
4373	2283
4373.27	2447
4373.54	2533
4373.81	2531
4374.07	2613
4374.34	2711
4374.61	2851
4374.88	2931
4375.15	2949
4375.42	3223
4375.68	3323
4375.95	3467
4376.22	3593
4376.49	3769
4376.76	4001
4377.02	4005
4377.29	4157
4377.56	4447
4377.83	4795
4378.1	4903
4378.36	4881
4378.63	5151
4378.9	5731
4379.17	6035
4379.44	5967
4379.7	6191
4379.97	6707
4380.24	7283
4380.51	7485
4380.77	7793
4381.04	8221
4381.31	8531
4381.58	9125
4381.85	9599
4382.11	10093
4382.38	10529
4382.65	10951
4382.92	11251
4383.18	12047
4383.45	12839
4383.72	13173
4383.99	13197
4384.25	13785
4384.52	14891
4384.79	15667
4385.06	15393
4385.32	15637
4385.59	16253
4385.86	17153
4386.13	17475
4386.39	17317
4386.66	17311
4386.93	17799
4387.19	18129
4387.46	18529
4387.73	18333
4388	18117
4388.26	18183
4388.53	18205
4388.8	17989
4389.07	18223
4389.33	17883
4389.6	17183
4389.87	16641
4390.13	16865
4390.4	17113
4390.67	16175
4390.94	15293
4391.2	14935
4391.47	15167
4391.74	14999
4392	14067
4392.27	13223
4392.54	13205
4392.8	13303
4393.07	12745
4393.34	12025
4393.6	11661
4393.87	11493
4394.14	11329
4394.41	10649
4394.67	10479
4394.94	10247
4395.21	9931
4395.47	9447
4395.74	9231
4396.01	9385
4396.27	9157
4396.54	8459
4396.81	8247
4397.07	8403
4397.34	8413
4397.61	8025
4397.87	7577
4398.14	7619
4398.41	7727
4398.67	7667
4398.94	7343
4399.2	7031
4399.47	7179
4399.74	7261
4400	7083
4400.27	6965
4400.54	7025
4400.8	6961
4401.07	6961
4401.34	6973
4401.6	7195
4401.87	7147
4402.14	7051
4402.4	6935
4402.67	7217
4402.93	7425
4403.2	7291
4403.47	7195
4403.73	7347
4404	7719
4404.26	7949
4404.53	7821
4404.8	7727
4405.06	7889
4405.33	8335
4405.59	8711
4405.86	8597
4406.13	8707
4406.39	9019
4406.66	9419
4406.93	9727
4407.19	9811
4407.46	10233
4407.72	10535
4407.99	10677
4408.25	11157
4408.52	11827
4408.79	12235
4409.05	12261
4409.32	12479
4409.58	13401
4409.85	14373
4410.11	14569
4410.38	14577
4410.65	14949
4410.91	16461
4411.18	17659
4411.44	17531
4411.71	17481
4411.97	18559
4412.24	19801
4412.51	20223
4412.77	20447
4413.04	21215
4413.3	22265
4413.57	22793
4413.83	23287
4414.1	24539
4414.36	24973
4414.63	24879
4414.9	25187
4415.16	26019
4415.43	27559
4415.69	27923
4415.96	27137
4416.22	26913
4416.49	28287
4416.75	29719
4417.02	29311
4417.28	27767
4417.55	28295
4417.81	29173
4418.08	29219
4418.34	28705
4418.61	27829
4418.87	28081
4419.14	27695
4419.4	27545
4419.67	26961
4419.93	26417
4420.2	26037
4420.46	25245
4420.73	24887
4420.99	24593
4421.26	24237
4421.52	23073
4421.79	22027
4422.05	21675
4422.32	21567
4422.58	21287
4422.85	19779
4423.11	18911
4423.38	18785
4423.64	18995
4423.91	17903
4424.17	16803
4424.44	16093
4424.7	16061
4424.97	15851
4425.23	14967
4425.5	14127
4425.76	13853
4426.02	13415
4426.29	12991
4426.55	12521
4426.82	12201
4427.08	11851
4427.35	11101
4427.61	10619
4427.88	10577
4428.14	10675
4428.41	9745
4428.67	9095
4428.94	9079
4429.2	9233
4429.46	9009
4429.73	8119
4429.99	7903
4430.26	7819
4430.52	7877
4430.79	7529
4431.05	7089
4431.31	6817
4431.58	6625
4431.84	6639
4432.11	6377
4432.37	6119
4432.63	5971
4432.9	5739
4433.16	5601
4433.43	5443
4433.69	5473
4433.96	5253
4434.22	4865
4434.48	4749
4434.75	4831
4435.01	4855
4435.28	4471
4435.54	4269
4435.8	4265
4436.07	4299
4436.33	4233
4436.6	4073
4436.86	3859
4437.12	3799
4437.39	3801
4437.65	3775
4437.92	3607
4438.18	3471
4438.44	3503
4438.71	3381
4438.97	3257
4439.23	3229
4439.5	3187
4439.76	3153
4440.02	3047
4440.29	2931
4440.55	3051
4440.82	3041
4441.08	2787
4441.34	2749
4441.61	2787
4441.87	2813
4442.13	2719
4442.4	2589
4442.66	2509
4442.92	2599
4443.19	2679
4443.45	2511
4443.71	2369
4443.98	2331
4444.24	2437
4444.5	2373
4444.77	2269
4445.03	2275
4445.29	2273
4445.56	2165
4445.82	2173
4446.08	2143
4446.35	2153
4446.61	2131
4446.87	2023
4447.14	1995
4447.4	2051
4447.66	2033
4447.93	1921
4448.19	1865
4448.45	1857
4448.72	1909
4448.98	1861
4449.24	1803
4449.5	1723
4449.77	1703
4450.03	1799
4450.29	1721
4450.56	1699
4450.82	1663
4451.08	1645
4451.34	1645
4451.61	1657
4451.87	1609
4452.13	1557
4452.4	1573
4452.66	1517
4452.92	1503
4453.18	1509
4453.45	1547
4453.71	1417
4453.97	1403
4454.23	1437
4454.5	1417
4454.76	1433
4455.02	1327
4455.29	1369
4455.55	1375
4455.81	1451
4456.07	1339
4456.34	1313
4456.6	1331
4456.86	1357
4457.12	1341
4457.39	1273
4457.65	1275
4457.91	1285
4458.17	1247
4458.44	1239
4458.7	1233
4458.96	1273
4459.22	1195
4459.48	1207
4459.75	1177
4460.01	1199
4460.27	1185
4460.53	1153
4460.8	1129
4461.06	1141
4461.32	1193
4461.58	1165
4461.84	1065
4462.11	1105
4462.37	1121
4462.63	1183
4462.89	1085
4463.16	1113
4463.42	1109
4463.68	1089
4463.94	1071
4464.2	1053
4464.47	1027
4464.73	1053
4464.99	995
4465.25	1023
4465.51	1031
4465.77	1035
4466.04	1009
4466.3	949
4466.56	967
4466.82	989
4467.08	997
4467.34	937
4467.61	911
4467.87	925
4468.13	981
4468.39	963
4468.65	935
4468.92	917
4469.18	911
4469.44	927
4469.7	953
4469.96	867
4470.22	885
4470.48	883
4470.75	919
4471.01	885
4471.27	845
4471.53	879
4471.79	863
4472.05	831
4472.32	851
4472.58	893
4472.84	877
4473.1	873
4473.36	831
4473.62	815
4473.88	861
4474.14	845
4474.41	813
4474.67	833
4474.93	855
4475.19	837
4475.45	831
4475.71	803
4475.97	801
4476.23	827
4476.5	855
4476.76	845
4477.02	797
4477.28	833
4477.54	803
4477.8	811
4478.06	795
4478.32	825
4478.58	799
4478.84	789
4479.1	783
4479.37	821
4479.63	809
4479.89	783
4480.15	745
4480.41	783
4480.67	783
4480.93	815
4481.19	779
4481.45	783
4481.71	777
4481.97	797
4482.23	789
4482.5	795
4482.76	779
4483.02	805
4483.28	789
4483.54	787
4483.8	827
4484.06	807
4484.32	795
4484.58	787
4484.84	799
4485.1	835
4485.36	805
4485.62	779
4485.88	801
4486.14	817
4486.4	835
4486.66	859
4486.93	797
4487.19	785
4487.44	825
4487.71	831
4487.97	827
4488.23	817
4488.49	815
4488.75	859
4489.01	857
4489.27	875
4489.53	839
4489.79	867
4490.05	859
4490.31	821
4490.57	847
4490.83	855
4491.09	827
4491.35	833
4491.61	855
4491.87	845
4492.13	853
4492.39	843
4492.65	779
4492.91	803
4493.17	809
4493.43	851
4493.69	819
4493.95	781
4494.21	775
4494.47	823
4494.73	835
4494.99	763
4495.25	727
4495.51	775
4495.77	793
4496.03	779
4496.29	765
4496.55	783
4496.81	761
4497.07	743
4497.33	757
4497.58	753
4497.85	741
4498.1	729
4498.36	745
4498.62	741
4498.88	731
4499.14	779
4499.4	729
4499.66	727
4499.92	731
4500.18	737
4500.44	775
4500.7	677
4500.96	681
4501.22	709
4501.48	723
4501.74	749
4502	721
4502.25	705
4502.51	715
4502.77	701
4503.03	699
4503.29	731
4503.55	699
4503.81	693
4504.07	695
4504.33	697
4504.59	729
4504.85	713
4505.11	699
4505.37	665
4505.63	695
4505.88	697
4506.14	705
4506.4	635
4506.66	685
4506.92	689
4507.18	675
4507.44	677
4507.7	651
4507.96	661
4508.22	661
4508.47	677
4508.73	649
4508.99	671
4509.25	653
4509.51	641
4509.77	627
4510.03	645
4510.29	647
4510.54	663
4510.8	633
4511.06	601
4511.32	599
4511.58	661
4511.84	641
4512.1	605
4512.35	613
4512.61	603
4512.87	629
4513.13	611
4513.39	595
4513.65	603
4513.91	629
4514.16	647
4514.42	633
4514.68	601
4514.94	637
4515.2	633
4515.46	603
4515.72	591
4515.97	623
4516.23	599
4516.49	601
4516.75	587
4517.01	613
4517.26	607
4517.52	581
4517.78	583
4518.04	579
4518.3	577
4518.56	613
4518.81	571
4519.07	585
4519.33	589
4519.59	605
4519.85	595
4520.1	573
4520.36	581
4520.62	579
4520.88	597
4521.14	607
4521.39	565
4521.65	551
4521.91	615
4522.17	593
4522.43	583
4522.68	607
4522.94	627
4523.2	619
4523.46	579
4523.72	609
4523.97	643
4524.23	619
4524.49	615
4524.75	611
4525	615
4525.26	673
4525.52	651
4525.78	655
4526.03	639
4526.29	655
4526.55	685
4526.81	675
4527.07	683
4527.32	671
4527.58	709
4527.84	721
4528.1	721
4528.35	745
4528.61	745
4528.87	717
4529.13	737
4529.38	745
4529.64	773
4529.9	767
4530.15	765
4530.41	743
4530.67	771
4530.93	813
4531.18	797
4531.44	745
4531.7	751
4531.96	763
4532.21	747
4532.47	813
4532.73	775
4532.98	763
4533.24	803
4533.5	815
4533.76	791
4534.01	795
4534.27	759
